Frecuencia (Hz)	volumen (dB)
86,132813	-67,950165
172,265625	-56,501080
258,398438	-39,226006
344,531250	-31,032566
430,664063	-29,040749
516,796875	-32,963154
602,929688	-46,927322
689,062500	-54,077145
775,195313	-56,246117
861,328125	-59,968212
947,460938	-64,080879
1033,593750	-66,051819
1119,726563	-67,895538
1205,859375	-68,112671
1291,992188	-68,096031
1378,125000	-68,482452
1464,257813	-67,863976
1550,390625	-68,481499
1636,523438	-67,787590
1722,656250	-66,753929
1808,789063	-67,103821
1894,921875	-68,703293
1981,054688	-69,599922
2067,187500	-70,062813
2153,320313	-70,729179
2239,453125	-71,217674
2325,585938	-71,911995
2411,718750	-71,432999
2497,851563	-67,483444
2583,984375	-57,067295
2670,117188	-47,230095
2756,250000	-38,535164
2842,382813	-35,064533
2928,515625	-36,200207
3014,648438	-38,538914
3100,781250	-42,169456
3186,914063	-41,395645
3273,046875	-42,853416
3359,179688	-42,050865
3445,312500	-42,868641
3531,445313	-42,943031
3617,578125	-45,393085
3703,710938	-45,407684
3789,843750	-47,518734
3875,976563	-44,483505
3962,109375	-45,857727
4048,242188	-45,276478
4134,375000	-42,004215
4220,507813	-38,766323
4306,640625	-38,235683
4392,773438	-38,384056
4478,906250	-39,403610
4565,039063	-36,854233
4651,171875	-38,235050
4737,304688	-40,583858
4823,437500	-45,579369
4909,570313	-52,135784
4995,703125	-55,781307
5081,835938	-59,711639
5167,968750	-65,617645
5254,101563	-75,267120
5340,234375	-80,473358
5426,367188	-80,262199
5512,500000	-80,951820
5598,632813	-82,150070
5684,765625	-81,930229
5770,898438	-79,806458
5857,031250	-73,200089
5943,164063	-65,351746
6029,296875	-63,978546
6115,429688	-70,015366
6201,562500	-78,491196
6287,695313	-80,657104
6373,828125	-81,627785
6459,960938	-82,035637
6546,093750	-80,977501
6632,226563	-81,592232
6718,359375	-80,935936
6804,492188	-79,892487
6890,625000	-76,925827
6976,757813	-71,018745
7062,890625	-68,674133
7149,023438	-70,780251
7235,156250	-70,257904
7321,289063	-64,302490
7407,421875	-57,769772
7493,554688	-56,201721
7579,687500	-57,590111
7665,820313	-59,993408
7751,953125	-59,883587
7838,085938	-62,387856
7924,218750	-68,630554
8010,351563	-69,938583
8096,484375	-64,836571
8182,617188	-63,214275
8268,750000	-60,226158
8354,882813	-55,486877
8441,015625	-51,438309
8527,148438	-51,006039
8613,281250	-52,005161
8699,414063	-54,133705
8785,546875	-53,395584
8871,679688	-53,422066
8957,812500	-53,141296
9043,945313	-54,554535
9130,078125	-54,819851
9216,210938	-54,190704
9302,343750	-52,078548
9388,476563	-52,805477
9474,609375	-53,476665
9560,742188	-52,644802
9646,875000	-52,616844
9733,007813	-55,885723
9819,140625	-58,064034
9905,273438	-57,858162
9991,406250	-56,375572
10077,539063	-56,851913
10163,671875	-55,496044
10249,804688	-52,622154
10335,937500	-50,855923
10422,070313	-50,578621
10508,203125	-50,341614
10594,335938	-51,375584
10680,468750	-52,288158
10766,601563	-55,825768
10852,734375	-59,231075
10938,867188	-59,889206
11025,000000	-61,582317
11111,132813	-64,884010
11197,265625	-63,057781
11283,398438	-61,638371
11369,531250	-61,996964
11455,664063	-60,157154
11541,796875	-58,629257
11627,929688	-56,690269
11714,062500	-58,080986
11800,195313	-59,053379
11886,328125	-58,551079
11972,460938	-57,220848
12058,593750	-59,120872
12144,726563	-60,338699
12230,859375	-60,994953
12316,992188	-61,018375
12403,125000	-62,684940
12489,257813	-65,712257
12575,390625	-70,598152
12661,523438	-74,278191
12747,656250	-79,235023
12833,789063	-83,102501
12919,921875	-84,384117
13006,054688	-87,187157
13092,187500	-86,779495
13178,320313	-85,855621
13264,453125	-86,066727
13350,585938	-85,785088
13436,718750	-85,308685
13522,851563	-83,854843
13608,984375	-83,103294
13695,117188	-84,320671
13781,250000	-83,537041
13867,382813	-82,715950
13953,515625	-83,241219
14039,648438	-85,106697
14125,781250	-84,893623
14211,914063	-84,832428
14298,046875	-85,346375
14384,179688	-85,125618
14470,312500	-84,905098
14556,445313	-84,493233
14642,578125	-84,018280
14728,710938	-81,171471
14814,843750	-79,754417
14900,976563	-79,955948
14987,109375	-82,909286
15073,242188	-84,874504
15159,375000	-84,956413
15245,507813	-85,765236
15331,640625	-86,776352
15417,773438	-84,668922
15503,906250	-84,413757
15590,039063	-86,199127
15676,171875	-85,796570
15762,304688	-86,171013
15848,437500	-85,967224
15934,570313	-85,543571
16020,703125	-85,308853
16106,835938	-85,460388
16192,968750	-86,026192
16279,101563	-86,152527
16365,234375	-85,718964
16451,367188	-85,055168
16537,500000	-84,415604
16623,632813	-84,898232
16709,765625	-84,384827
16795,898438	-84,909233
16882,031250	-85,605118
16968,164063	-85,728416
17054,296875	-85,359993
17140,429688	-84,914993
17226,562500	-84,985245
17312,695313	-84,943985
17398,828125	-84,829979
17484,960938	-84,860466
17571,093750	-84,059799
17657,226563	-84,359932
17743,359375	-84,681442
17829,492188	-84,914139
17915,625000	-85,118629
18001,757813	-84,259033
18087,890625	-84,010239
18174,023438	-84,406509
18260,156250	-84,285568
18346,289063	-83,966949
18432,421875	-84,563026
18518,554688	-84,539490
18604,687500	-83,913025
18690,820313	-84,069344
18776,953125	-83,698174
18863,085938	-83,290749
18949,218750	-83,412704
19035,351563	-83,378410
19121,484375	-82,355392
19207,617188	-82,424294
19293,750000	-82,325531
19379,882813	-82,878082
19466,015625	-83,392921
19552,148438	-83,244225
19638,281250	-83,372192
19724,414063	-83,120972
19810,546875	-82,944893
19896,679688	-83,172012
19982,812500	-83,417259
20068,945313	-83,715660
20155,078125	-83,388504
20241,210938	-83,399910
20327,343750	-83,103226
20413,476563	-82,926132
20499,609375	-83,382858
20585,742188	-83,622055
20671,875000	-84,538460
20758,007813	-84,586143
20844,140625	-85,310341
20930,273438	-86,150826
21016,406250	-85,603638
21102,539063	-85,658829
21188,671875	-86,405396
21274,804688	-86,479332
21360,937500	-86,942886
21447,070313	-88,074066
21533,203125	-88,078011
21619,335938	-88,894951
21705,468750	-89,081223
21791,601563	-89,048798
21877,734375	-89,967293
21963,867188	-90,764908
