Frecuencia (Hz)	volumen (dB)
86,132813	-68,737862
172,265625	-59,768883
258,398438	-50,962391
344,531250	-28,785870
430,664063	-19,433851
516,796875	-22,345455
602,929688	-41,687912
689,062500	-50,146294
775,195313	-55,388737
861,328125	-50,453552
947,460938	-49,997196
1033,593750	-58,602386
1119,726563	-58,743679
1205,859375	-60,113480
1291,992188	-63,376156
1378,125000	-62,054268
1464,257813	-65,854507
1550,390625	-57,647362
1636,523438	-55,975212
1722,656250	-60,947590
1808,789063	-57,582294
1894,921875	-58,827686
1981,054688	-49,322636
2067,187500	-46,679089
2153,320313	-46,478565
2239,453125	-37,964924
2325,585938	-39,107323
2411,718750	-45,723282
2497,851563	-43,277313
2583,984375	-48,085850
2670,117188	-47,516579
2756,250000	-45,562561
2842,382813	-48,331501
2928,515625	-45,982719
3014,648438	-47,783024
3100,781250	-53,598549
3186,914063	-54,410652
3273,046875	-59,673164
3359,179688	-56,841557
3445,312500	-56,158627
3531,445313	-61,761913
3617,578125	-61,265900
3703,710938	-62,465740
3789,843750	-69,969604
3875,976563	-71,513283
3962,109375	-67,001160
4048,242188	-57,955334
4134,375000	-55,446404
4220,507813	-51,479862
4306,640625	-44,326611
4392,773438	-46,214817
4478,906250	-52,359638
4565,039063	-50,495144
4651,171875	-53,496475
4737,304688	-47,144337
4823,437500	-45,894318
4909,570313	-47,293625
4995,703125	-44,947872
5081,835938	-48,293522
5167,968750	-55,160713
5254,101563	-58,125298
5340,234375	-65,958961
5426,367188	-72,343452
5512,500000	-71,359810
5598,632813	-71,889313
5684,765625	-73,646027
5770,898438	-74,513008
5857,031250	-73,201828
5943,164063	-72,839157
6029,296875	-74,211220
6115,429688	-74,706551
6201,562500	-73,649925
6287,695313	-71,240479
6373,828125	-65,625076
6459,960938	-62,085964
6546,093750	-58,300781
6632,226563	-57,829456
6718,359375	-59,115471
6804,492188	-62,444859
6890,625000	-67,835777
6976,757813	-71,435043
7062,890625	-70,129723
7149,023438	-67,586235
7235,156250	-62,889969
7321,289063	-60,396152
7407,421875	-62,721310
7493,554688	-69,409737
7579,687500	-72,740898
7665,820313	-74,953842
7751,953125	-74,483849
7838,085938	-73,987251
7924,218750	-73,077347
8010,351563	-69,422249
8096,484375	-65,009438
8182,617188	-62,790974
8268,750000	-59,791920
8354,882813	-57,097862
8441,015625	-55,793739
8527,148438	-58,062630
8613,281250	-56,637505
8699,414063	-52,227753
8785,546875	-50,827755
8871,679688	-44,103874
8957,812500	-41,710072
9043,945313	-40,399899
9130,078125	-39,551453
9216,210938	-43,401886
9302,343750	-47,175419
9388,476563	-47,692356
9474,609375	-49,018822
9560,742188	-48,239433
9646,875000	-47,867550
9733,007813	-46,986588
9819,140625	-45,783340
9905,273438	-46,021191
9991,406250	-46,408718
10077,539063	-48,070240
10163,671875	-49,845398
10249,804688	-49,996017
10335,937500	-50,868977
10422,070313	-49,383762
10508,203125	-50,029606
10594,335938	-51,790077
10680,468750	-52,839012
10766,601563	-56,434818
10852,734375	-60,159050
10938,867188	-61,268898
11025,000000	-61,571808
11111,132813	-63,455956
11197,265625	-63,539436
11283,398438	-63,834244
11369,531250	-65,727310
11455,664063	-65,023834
11541,796875	-64,457581
11627,929688	-66,053963
11714,062500	-72,567352
11800,195313	-78,728867
11886,328125	-82,047997
11972,460938	-82,223030
12058,593750	-81,980354
12144,726563	-83,103157
12230,859375	-84,377876
12316,992188	-83,615051
12403,125000	-83,732773
12489,257813	-83,856148
12575,390625	-84,436134
12661,523438	-83,980598
12747,656250	-83,623360
12833,789063	-83,488922
12919,921875	-84,866623
13006,054688	-85,618095
13092,187500	-86,302338
13178,320313	-85,848663
13264,453125	-84,636063
13350,585938	-84,126755
13436,718750	-84,784950
13522,851563	-85,046158
13608,984375	-84,553062
13695,117188	-84,300507
13781,250000	-84,429131
13867,382813	-85,358170
13953,515625	-85,207840
14039,648438	-84,078484
14125,781250	-84,492424
14211,914063	-83,673386
14298,046875	-84,937637
14384,179688	-84,254555
14470,312500	-83,602242
14556,445313	-83,341721
14642,578125	-84,368591
14728,710938	-85,863480
14814,843750	-85,607803
14900,976563	-85,578766
14987,109375	-85,663383
15073,242188	-86,214279
15159,375000	-86,598747
15245,507813	-86,621651
15331,640625	-85,978561
15417,773438	-85,483376
15503,906250	-85,254044
15590,039063	-84,625435
15676,171875	-85,683014
15762,304688	-85,050964
15848,437500	-85,018684
15934,570313	-84,701942
16020,703125	-84,179100
16106,835938	-84,954361
16192,968750	-85,757370
16279,101563	-83,492264
16365,234375	-84,392746
16451,367188	-85,682632
16537,500000	-84,930763
16623,632813	-85,299225
16709,765625	-85,848068
16795,898438	-85,493073
16882,031250	-85,390671
16968,164063	-85,401268
17054,296875	-84,610832
17140,429688	-83,590004
17226,562500	-84,468506
17312,695313	-84,029045
17398,828125	-83,317459
17484,960938	-83,256210
17571,093750	-82,692635
17657,226563	-83,115936
17743,359375	-83,186409
17829,492188	-84,311554
17915,625000	-84,019051
18001,757813	-83,615120
18087,890625	-84,578850
18174,023438	-83,475845
18260,156250	-83,020523
18346,289063	-82,833176
18432,421875	-83,135780
18518,554688	-84,197891
18604,687500	-84,101273
18690,820313	-83,904617
18776,953125	-84,717407
18863,085938	-84,209869
18949,218750	-82,313896
19035,351563	-82,368675
19121,484375	-82,639053
19207,617188	-83,299133
19293,750000	-83,181808
19379,882813	-82,229103
19466,015625	-82,909698
19552,148438	-83,380760
19638,281250	-83,632462
19724,414063	-82,932816
19810,546875	-82,687469
19896,679688	-82,494652
19982,812500	-83,112602
20068,945313	-83,571228
20155,078125	-83,520653
20241,210938	-84,077927
20327,343750	-83,811790
20413,476563	-83,444183
20499,609375	-82,640938
20585,742188	-82,642365
20671,875000	-82,430183
20758,007813	-83,648125
20844,140625	-84,786415
20930,273438	-84,888336
21016,406250	-84,861626
21102,539063	-86,315575
21188,671875	-86,862312
21274,804688	-86,934242
21360,937500	-86,546227
21447,070313	-87,413231
21533,203125	-88,547874
21619,335938	-89,645599
21705,468750	-90,169060
21791,601563	-89,684692
21877,734375	-89,651245
21963,867188	-90,194870
